Wavelength	alpha
300	1055.154005
310	2614.783647
320	872.3586257
330	1961.37782
340	2124.220743
350	1458.403361
360	1769.801917
370	2519.523683
380	935.3524283
390	3017.459273
400	6292.367288
410	2786.656342
420	6608.540391
430	4120.288332
440	6020.01795
450	9479.896904
460	8524.613347
470	10548.52321
480	5430.872141
490	3233.206335
500	7219.232924
510	5410.049186
520	4145.726021
530	5092.826711
540	4908.610405
550	5369.837138
560	5360.764854
570	5468.534635
580	3475.04386
590	3760.645171
600	4101.194057
610	3829.375027
620	2830.992275
630	2524.148653
640	2506.218098
650	3061.846615
660	3114.235597
670	2726.174026
680	2108.421769
690	1464.104119
700	1486.324075
710	1784.718003
720	1721.223525
730	1828.203067
740	1896.621032
750	1230.957412
760	1050.883728
770	726.9490156
780	733.3580655
790	634.5412541
800	701.488475
810	906.1287116
820	801.5739862
830	910.5855774
840	736.434778
850	671.0943254
860	438.4763051
870	315.8497559
880	360.8292047
890	277.1631185
900	198.3739802
910	228.3984829
920	190.7658412
930	202.9954407
940	290.1278045
950	161.3309695
960	256.8180111
970	211.7867393
980	166.4446525
990	178.3354435
1000	130.2827471
1010	173.0214151
1020	70.72390478
1030	99.9996257
1040	98.62538045
1050	69.55279776
1060	277.8740647
1070	236.7050922
1080	171.2264503
1090	243.2852479
1100	171.6832354
1110	71.86985953
1120	88.08441149
1130	102.8366079
1140	200.7042341
1150	66.54859897
1160	98.75416393
1170	62.94996397
1180	109.5014991
1190	97.32238749
1200	86.97235294
1210	37.12546845
1220	59.50173597
1230	25.48864131
1240	32.83830522
1250	116.2090897
1260	81.35793688
1270	75.40096182
1280	41.36606865
1290	15.83959343
1300	49.65543597
1310	49.48638869
1320	95.9449296
1330	86.29265681
1340	43.15814965
1350	60.79471061
1360	57.21132376
1370	51.45240539
1380	72.43779226
1390	51.59703551
1400	79.23198366
1410	91.31267991
1420	53.28425379
1430	125.1245314
1440	66.81686907
1450	98.60610127
1460	146.6230536
1470	240.502063
1480	396.4492571
1490	246.8380974
1500	222.712433
1510	206.850381
1520	91.35219793
1530	38.58492743
1540	149.5426262
1550	103.5890878
1560	160.9001663
1570	159.3110787
1580	153.6359177
1590	52.71280993
1600	134.5627406
1610	153.2492958
1620	110.9892714
1630	72.5931725
1640	135.6161599
1650	165.7216165
1660	121.132522
1670	129.1259502
1680	63.83825623
1690	392.775414
1700	173.8740904
1710	66.81609991
1720	75.26104184
1730	181.6563454
1740	196.0236864
1750	154.4902443
1760	346.7444747
1770	232.475046
1780	157.8879428
1790	113.6455821
1800	443.7563688
1810	367.3682777
1820	495.373795
1830	209.2597978
1840	341.2566906
1850	268.2176303
1860	103.6957121
1870	119.1202243
1880	153.9467201
1890	283.8760203
1900	142.84317
1910	0
1920	0
1930	0
1940	0
1950	0
1960	0
1970	0
1980	0
1990	0
2000	0
